
2theta(deg) q(1/A) s(1/nm) Intensity I/N I*f^2 I*PF
0.00000 0.00000 0.00000 61596786969.00000 248187.00000 1508224068.35764 1508224068.35764
0.17051 0.01214 0.01932 22296025010.76213 89835.58773 545922266.92519 545919849.45130
0.34102 0.02428 0.03864 1833581111.29826 7387.90151 44894192.59973 44893397.39804
0.51153 0.03641 0.05795 334867639.88050 1349.25536 8198624.77785 8198298.03639
0.68205 0.04855 0.07727 164843398.99684 664.19030 4035601.73850 4035315.82147
0.85256 0.06069 0.09659 67633971.22644 272.51214 1655623.80081 1655440.52637
1.02307 0.07282 0.11590 22183351.46615 89.38160 542969.07301 542882.52369
1.19358 0.08496 0.13522 22876732.36018 92.17539 559866.15954 559744.69494
1.36409 0.09710 0.15454 8541508.18013 34.41561 209005.74323 208946.52050
1.53460 0.10924 0.17385 6534525.36875 26.32904 159868.27405 159810.94487
1.70512 0.12137 0.19317 4221057.87052 17.00757 103248.86304 103203.15534
1.87563 0.13351 0.21248 3333311.25211 13.43064 81516.72769 81473.06513
2.04614 0.14564 0.23180 1833949.90865 7.38939 44839.05081 44810.47052
2.21665 0.15778 0.25111 1791751.91595 7.21936 43796.16424 43763.40466
2.38716 0.16991 0.27043 957596.17429 3.85837 23400.28006 23379.98184
2.55767 0.18205 0.28974 1083689.14894 4.36642 26473.72437 26447.36462
2.72818 0.19418 0.30905 595908.69282 2.40105 14553.01338 14536.52808
2.89870 0.20632 0.32836 587391.50622 2.36673 14340.19311 14321.85669
3.06921 0.21845 0.34767 432677.63993 1.74335 10559.34974 10544.21416
3.23972 0.23058 0.36698 391801.00034 1.57865 9558.17374 9542.91033
3.41023 0.24272 0.38629 258086.86714 1.03989 6293.65936 6282.52456
3.58074 0.25485 0.40560 295238.03426 1.18958 7196.62526 7182.58956
3.75125 0.26698 0.42491 159856.53048 0.64410 3894.91112 3886.57518
3.92177 0.27911 0.44422 202810.88752 0.81717 4939.24273 4927.69039
4.09228 0.29124 0.46352 134065.38117 0.54018 3263.46573 3255.15584
4.26279 0.30337 0.48283 126197.04555 0.50848 3070.40945 3061.92728
4.43330 0.31550 0.50213 103952.32722 0.41885 2527.88573 2520.33360
4.60381 0.32763 0.52143 103054.68523 0.41523 2504.71616 2496.64783
4.77432 0.33975 0.54074 66796.13324 0.26914 1622.56132 1616.94122
4.94483 0.35188 0.56004 85197.69795 0.34328 2068.36971 2060.68588
5.11535 0.36401 0.57933 52581.58478 0.21186 1275.78065 1270.70962
5.28586 0.37613 0.59863 61130.59448 0.24631 1482.29464 1476.00453
5.45637 0.38826 0.61793 47975.44662 0.19330 1162.57264 1157.31683
5.62688 0.40038 0.63722 44944.17981 0.18109 1088.40690 1083.17506
5.79739 0.41250 0.65652 37177.88878 0.14980 899.72739 895.13733
5.96790 0.42462 0.67581 42211.34384 0.17008 1020.83477 1015.31714
6.13842 0.43674 0.69510 25939.27795 0.10452 626.86773 623.28387
6.30893 0.44886 0.71439 33979.65138 0.13691 820.57906 815.62456
6.47944 0.46098 0.73368 23673.92298 0.09539 571.27733 567.63991
6.64995 0.47310 0.75296 25390.78266 0.10231 612.23746 608.13230
6.82046 0.48522 0.77225 22556.97124 0.09089 543.47989 539.64738
6.99097 0.49733 0.79153 20915.75372 0.08427 503.53187 499.80219
7.16148 0.50945 0.81081 17833.65813 0.07186 428.97950 425.64596
7.33200 0.52156 0.83009 20640.40258 0.08316 496.07674 492.03706
7.50251 0.53367 0.84937 13419.80842 0.05407 322.25792 319.51092
7.67302 0.54578 0.86864 17064.94309 0.06876 409.43101 405.78145
7.84353 0.55789 0.88791 13665.27315 0.05506 327.57056 324.52029
8.01404 0.57000 0.90719 13966.72422 0.05628 334.49057 331.23986
8.18455 0.58211 0.92646 13067.39052 0.05265 312.66056 309.49221
8.35507 0.59421 0.94572 13001.72574 0.05239 310.79378 307.51270
8.52558 0.60632 0.96499 10486.62599 0.04225 250.43004 247.67802
8.69609 0.61842 0.98425 12579.26981 0.05068 300.10806 296.67791
8.86660 0.63052 1.00351 8929.45214 0.03598 212.81927 210.29125
9.03711 0.64263 1.02277 9966.29355 0.04016 237.28816 234.36094
9.20762 0.65472 1.04203 9214.65800 0.03713 219.16454 216.35880
9.37813 0.66682 1.06128 8086.50422 0.03258 192.12904 189.57828
9.54865 0.67892 1.08053 9376.26666 0.03778 222.53368 219.47186
9.71916 0.69101 1.09978 9063.65562 0.03652 214.87968 211.81767
9.88967 0.70311 1.11903 6778.93049 0.02731 160.53580 158.16801
10.06018 0.71520 1.13827 8325.95424 0.03355 196.95006 193.94520
10.23069 0.72729 1.15752 6589.96070 0.02655 155.70731 153.25134
10.40120 0.73938 1.17675 6696.32508 0.02698 158.03728 155.46169
10.57172 0.75146 1.19599 6749.57788 0.02720 159.10698 156.42922
10.74223 0.76355 1.21523 6348.99770 0.02558 149.48590 146.88922
10.91274 0.77563 1.23446 6180.37366 0.02490 145.33999 142.73552
11.08325 0.78771 1.25369 7008.03770 0.02824 164.60200 161.56062
11.25376 0.79979 1.27291 6295.28662 0.02537 147.67788 144.86570
11.42427 0.81187 1.29213 7532.85802 0.03035 176.48754 173.02549
11.59478 0.82395 1.31135 7746.16898 0.03121 181.25444 177.59342
11.76530 0.83602 1.33057 6637.78894 0.02675 155.11925 151.89459
11.93581 0.84810 1.34979 6664.15887 0.02685 155.53258 152.20630
12.10632 0.86017 1.36900 6417.82989 0.02586 149.58611 146.29633
12.27683 0.87224 1.38821 5750.58923 0.02317 133.85536 130.82931
12.44734 0.88430 1.40741 6375.76424 0.02569 148.20723 144.76449
12.61785 0.89637 1.42661 5605.35928 0.02259 130.12111 127.01647
12.78837 0.90843 1.44581 5762.92258 0.02322 133.59424 130.32145
12.95888 0.92049 1.46501 6350.70088 0.02559 147.01471 143.31811
13.12939 0.93255 1.48420 5681.29642 0.02289 131.33315 127.94492
13.29990 0.94461 1.50339 5221.13787 0.02104 120.52399 117.33480
13.47041 0.95666 1.52258 5483.70845 0.02210 126.40313 122.97366
13.64092 0.96872 1.54176 4592.38617 0.01850 105.70385 102.76429
13.81143 0.98077 1.56094 5438.90139 0.02191 125.00469 121.44264
13.98195 0.99281 1.58011 5059.00060 0.02038 116.10114 112.71224
14.15246 1.00486 1.59929 5001.05004 0.02015 114.59971 111.17423
14.32297 1.01690 1.61845 5609.82743 0.02260 128.35606 124.42833
14.49348 1.02895 1.63762 5032.23287 0.02028 114.96516 111.36474
14.66399 1.04099 1.65678 4838.45716 0.01950 110.36851 106.83203
14.83450 1.05302 1.67594 5478.97267 0.02208 124.78556 120.69570
15.00502 1.06506 1.69509 5070.76477 0.02043 115.30811 111.44350
15.17553 1.07709 1.71424 5402.60339 0.02177 122.66056 118.45777
15.34604 1.08912 1.73339 5211.15165 0.02100 118.12598 113.98929
15.51655 1.10115 1.75253 4824.52199 0.01944 109.18683 105.27984
15.68706 1.11317 1.77167 5896.92282 0.02376 133.24169 128.37124
15.85757 1.12520 1.79081 5472.38737 0.02205 123.44821 118.83965
16.02808 1.13722 1.80994 4769.21492 0.01922 107.40952 103.31529
16.19860 1.14923 1.82906 5967.41474 0.02404 134.17285 128.95199
16.36911 1.16125 1.84819 5666.24197 0.02283 127.18937 122.13837
16.53962 1.17326 1.86731 5330.67172 0.02148 119.45648 114.61600
16.71013 1.18527 1.88642 6445.51703 0.02597 144.19574 138.23516
16.88064 1.19728 1.90553 5883.89760 0.02371 131.40793 125.86778
17.05115 1.20928 1.92464 6002.33928 0.02418 133.82394 128.07077
17.22166 1.22129 1.94374 6715.22966 0.02706 149.46034 142.90972
17.39218 1.23329 1.96284 6282.03789 0.02531 139.57658 133.34117
17.56269 1.24528 1.98193 6760.07995 0.02724 149.93599 143.10997
17.73320 1.25728 2.00102 7484.77512 0.03016 165.71816 158.03115
17.90371 1.26927 2.02010 6791.05794 0.02736 150.09331 143.00095
18.07422 1.28126 2.03918 7875.23516 0.03173 173.74620 165.38429
18.24473 1.29324 2.05826 8144.82652 0.03282 179.37293 170.58214
18.41525 1.30522 2.07733 7832.52018 0.03156 172.18501 163.59352
18.58576 1.31720 2.09640 9519.35133 0.03836 208.88894 198.27897
18.75627 1.32918 2.11546 9417.10396 0.03794 206.26964 195.60654
18.92678 1.34115 2.13451 9285.12407 0.03741 203.00706 192.32796
19.09729 1.35313 2.15357 11987.41177 0.04830 261.60742 247.60588
19.26780 1.36509 2.17261 11467.64526 0.04621 249.80196 236.20156
19.43831 1.37706 2.19166 13816.84755 0.05567 300.41619 283.78059
19.60883 1.38902 2.21069 17443.67589 0.07028 378.56551 357.24752
19.77934 1.40098 2.22973 16381.21591 0.06600 354.84099 334.52393
19.94985 1.41293 2.24876 19841.40218 0.07995 428.98354 404.01332
20.12036 1.42489 2.26778 21323.09323 0.08592 460.14547 432.92063
20.29087 1.43684 2.28680 21618.31398 0.08710 465.62852 437.63012
20.46138 1.44878 2.30581 27331.07353 0.11012 587.54811 551.64793
20.63190 1.46073 2.32482 27343.35016 0.11017 586.68327 550.26213
20.80241 1.47267 2.34382 34512.45266 0.13906 739.07640 692.46697
20.97292 1.48460 2.36282 42187.43160 0.16998 901.68427 843.92622
21.14343 1.49654 2.38181 43611.83395 0.17572 930.31511 869.79472
21.31394 1.50847 2.40080 59381.51968 0.23926 1264.23505 1180.72208
21.48445 1.52039 2.41978 82391.91214 0.33198 1750.68669 1633.26975
21.65496 1.53232 2.43876 81604.90948 0.32880 1730.54963 1612.72252
21.82548 1.54424 2.45773 144657.43835 0.58286 3061.60472 2850.01591
21.99599 1.55615 2.47669 216986.47461 0.87429 4583.30012 4261.82410
22.16650 1.56806 2.49565 259303.01527 1.04479 5466.22181 5077.15031
22.33701 1.57997 2.51461 716846.51624 2.88833 15081.22905 13992.05636
22.50752 1.59188 2.53356 3010085.31335 12.12830 63200.00527 58569.35794
22.67803 1.60378 2.55250 6577744.98838 26.50318 137828.81742 127584.64907
22.84855 1.61568 2.57144 2467105.40122 9.94051 51590.81401 47701.53239
23.01906 1.62758 2.59037 655239.00484 2.64010 13674.23828 12628.77336
23.18957 1.63947 2.60929 269568.70668 1.08615 5614.21064 5178.94536
23.36008 1.65136 2.62822 217925.53876 0.87807 4529.39649 4173.34316
23.53059 1.66324 2.64713 133397.66585 0.53749 2766.88198 2546.37324
23.70110 1.67512 2.66604 85338.89148 0.34385 1766.43174 1623.72508
23.87161 1.68700 2.68494 80542.85432 0.32452 1663.72543 1527.48889
24.04213 1.69887 2.70384 57164.65161 0.23033 1178.37724 1080.58286
24.21264 1.71074 2.72273 44968.07564 0.18119 925.04031 847.24356
24.38315 1.72261 2.74161 41606.77024 0.16764 854.11708 781.33177
24.55366 1.73447 2.76049 33697.21636 0.13577 690.30657 630.70623
24.72417 1.74633 2.77937 28839.61534 0.11620 589.56216 537.99512
24.89468 1.75818 2.79823 26957.03371 0.10862 549.92319 501.19991
25.06520 1.77003 2.81709 22603.58486 0.09107 460.14502 418.85190
25.23571 1.78188 2.83595 21824.01576 0.08793 443.34036 403.04772
25.40622 1.79372 2.85479 19863.64858 0.08004 402.66568 365.60645
25.57673 1.80556 2.87364 18303.69631 0.07375 370.25865 335.75394
25.74724 1.81739 2.89247 17659.67287 0.07115 356.47393 322.83972
25.91775 1.82922 2.91130 16346.57969 0.06586 329.26733 297.81582
26.08826 1.84105 2.93012 15012.69356 0.06049 301.75535 272.57792
26.25878 1.85287 2.94894 15427.00498 0.06216 309.42159 279.13837
26.42929 1.86469 2.96775 13819.59920 0.05568 276.58916 249.19193
26.59980 1.87651 2.98655 13107.60303 0.05281 261.77720 235.53595
26.77031 1.88832 3.00535 13451.54459 0.05420 268.06968 240.87754
26.94082 1.90012 3.02414 12673.91016 0.05107 252.02950 226.16215
27.11133 1.91192 3.04292 12848.31439 0.05177 254.94728 228.47334
27.28185 1.92372 3.06170 12946.74689 0.05217 256.34606 229.41676
27.45236 1.93551 3.08046 12704.27162 0.05119 251.00125 224.32847
27.62287 1.94730 3.09923 12768.32455 0.05145 251.72048 224.66417
27.79338 1.95909 3.11798 13026.27396 0.05249 256.24877 228.39181
27.96389 1.97087 3.13673 13057.73881 0.05261 256.30967 228.13081
28.13440 1.98264 3.15547 13709.94886 0.05524 268.52628 238.67269
28.30491 1.99441 3.17421 14410.53078 0.05806 281.63294 249.97300
28.47543 2.00618 3.19294 14670.23150 0.05911 286.08267 253.56639
28.64594 2.01794 3.21166 15170.31889 0.06112 295.18825 261.26814
28.81645 2.02970 3.23037 15834.29882 0.06380 307.43382 271.72091
28.98696 2.04145 3.24908 16508.55181 0.06652 319.82246 282.26772
29.15747 2.05320 3.26778 18400.55118 0.07414 355.69418 313.47770
29.32798 2.06495 3.28647 19289.03992 0.07772 372.04998 327.42032
29.49850 2.07669 3.30515 20828.25256 0.08392 400.85481 352.25949
29.66901 2.08842 3.32383 23076.54031 0.09298 443.14662 388.85809
29.83952 2.10015 3.34250 26168.70542 0.10544 501.41853 439.34837
30.01003 2.11188 3.36116 30983.14689 0.12484 592.35768 518.26806
30.18054 2.12360 3.37982 34559.30641 0.13925 659.26932 575.95949
30.35105 2.13532 3.39846 40966.21462 0.16506 779.76199 680.21570
30.52156 2.14703 3.41711 45569.38688 0.18361 865.45972 753.84811
30.69208 2.15874 3.43574 57502.36451 0.23169 1089.67233 947.72472
30.86259 2.17044 3.45436 63229.81221 0.25477 1195.55015 1038.24602
31.03310 2.18214 3.47298 90411.74647 0.36429 1705.71166 1479.04437
31.20361 2.19383 3.49159 106209.59194 0.42794 1999.30273 1730.98847
31.37412 2.20552 3.51019 163472.31533 0.65867 3070.38141 2654.26885
31.54463 2.21720 3.52879 195504.68575 0.78773 3663.85140 3162.45494
31.71515 2.22888 3.54737 408165.27906 1.64459 7632.18006 6577.57745
31.88566 2.24055 3.56595 544547.06526 2.19410 10159.66000 8742.27320
32.05617 2.25222 3.58452 2023950.00700 8.15494 37676.80800 32370.10574
32.22668 2.26388 3.60308 5692900.49213 22.93795 105739.65253 90704.68140
32.39719 2.27554 3.62164 3980134.09301 16.03684 73761.77892 63174.52936
32.56770 2.28720 3.64019 871298.07822 3.51065 16111.25172 13777.03432
32.73821 2.29884 3.65872 484151.30473 1.95075 8932.47827 7626.25417
32.90873 2.31049 3.67725 262312.47351 1.05691 4828.78261 4116.10884
33.07924 2.32212 3.69578 175829.59288 0.70846 3229.52072 2748.49031
33.24975 2.33376 3.71429 122252.65081 0.49258 2240.42987 1903.66923
33.42026 2.34539 3.73280 91442.79065 0.36844 1672.04940 1418.43787
33.59077 2.35701 3.75129 72886.34849 0.29368 1329.75618 1126.24115
33.76128 2.36863 3.76978 55784.14986 0.22477 1015.45922 858.65188
33.93180 2.38024 3.78826 48320.69303 0.19469 877.62774 740.89619
34.10231 2.39184 3.80674 39544.28652 0.15933 716.61544 603.98017
34.27282 2.40345 3.82520 34764.27369 0.14007 628.57996 528.91233
34.44333 2.41504 3.84366 29762.42312 0.11992 536.93334 451.05273
34.61384 2.42663 3.86210 27301.99827 0.11001 491.44058 412.15343
34.78435 2.43822 3.88054 23788.30072 0.09585 427.23251 357.70938
34.95486 2.44980 3.89897 22579.21683 0.09098 404.60744 338.20127
35.12538 2.46137 3.91739 19796.51213 0.07976 353.94652 295.35991
35.29589 2.47294 3.93581 18660.10204 0.07519 332.87932 277.31315
35.46640 2.48450 3.95421 17732.76046 0.07145 315.62609 262.49651
35.63691 2.49606 3.97261 16645.64126 0.06707 295.61110 245.43449
35.80742 2.50762 3.99099 16232.55847 0.06540 287.62774 238.40048
35.97793 2.51916 4.00937 15485.38524 0.06239 273.77221 226.52936
36.14845 2.53070 4.02774 15738.82254 0.06342 277.62791 229.32653
36.31896 2.54224 4.04610 14974.09552 0.06033 263.54514 217.31993
36.48947 2.55377 4.06445 15520.89913 0.06254 272.55543 224.36240
36.65998 2.56529 4.08279 15029.27356 0.06056 263.32952 216.39280
36.83049 2.57681 4.10113 15698.26974 0.06325 274.43342 225.12598
37.00100 2.58833 4.11945 15980.65173 0.06439 278.74265 228.26261
37.17151 2.59983 4.13776 16520.03126 0.06656 287.50382 235.02556
37.34203 2.61134 4.15607 17551.24614 0.07072 304.76469 248.69877
37.51254 2.62283 4.17437 18545.60253 0.07472 321.30812 261.73730
37.68305 2.63432 4.19265 20542.13294 0.08277 355.09986 288.75317
37.85356 2.64581 4.21093 22108.90684 0.08908 381.32617 309.52995
38.02407 2.65728 4.22920 25509.09249 0.10278 438.98423 355.69866
38.19458 2.66876 4.24746 29021.29757 0.11693 498.30528 403.04499
38.36510 2.68022 4.26571 34270.88663 0.13808 587.12284 474.03372
38.53561 2.69168 4.28395 42848.10141 0.17264 732.42038 590.28319
38.70612 2.70314 4.30218 56277.93376 0.22676 959.82581 772.16422
38.87663 2.71459 4.32040 74343.93667 0.29955 1265.10199 1015.91551
39.04714 2.72603 4.33861 109187.76640 0.43994 1853.87285 1486.01897
39.21765 2.73747 4.35681 166249.48674 0.66986 2816.38835 2253.44461
39.38816 2.74890 4.37501 281866.99321 1.13570 4764.34294 3805.08966
39.55868 2.76032 4.39319 773793.35119 3.11778 13050.00465 10403.45734
39.72919 2.77174 4.41136 2296010.27413 9.25113 38635.51527 30743.72644
39.89970 2.78315 4.42953 1980512.32256 7.97992 33252.01600 26411.20409
40.07021 2.79456 4.44768 551211.40737 2.22095 9233.92904 7320.73761
40.24072 2.80596 4.46582 250132.65736 1.00784 4180.87327 3308.49959
40.41123 2.81735 4.48396 138823.29130 0.55935 2315.19509 1828.71130
40.58175 2.82874 4.50208 94389.40433 0.38032 1570.64321 1238.30120
40.75226 2.84012 4.52019 63278.78324 0.25496 1050.61079 826.76017
40.92277 2.85150 4.53830 49914.46558 0.20112 826.87530 649.47793
41.09328 2.86287 4.55639 37446.13355 0.15088 618.94328 485.24348
41.26379 2.87423 4.57448 30864.71004 0.12436 509.02227 398.31615
41.43430 2.88558 4.59255 26383.25360 0.10630 434.14429 339.08245
41.60481 2.89693 4.61061 22152.56633 0.08926 363.71516 283.53753
41.77533 2.90828 4.62867 20028.02212 0.08070 328.10096 255.28919
41.94584 2.91961 4.64671 17413.46839 0.07016 284.63433 221.04763
42.11635 2.93094 4.66474 16279.74692 0.06559 265.51110 205.80353
42.28686 2.94227 4.68276 14273.94796 0.05751 232.28046 179.70174
42.45737 2.95358 4.70078 14145.81973 0.05700 229.68400 177.35268
42.62788 2.96489 4.71878 13023.12663 0.05247 210.98542 162.60160
42.79840 2.97620 4.73677 12501.80066 0.05037 202.09000 155.44636
42.96891 2.98750 4.75475 12653.76631 0.05098 204.09279 156.68403
43.13942 2.99879 4.77272 11977.22522 0.04826 192.75259 147.69189
43.30993 3.01007 4.79068 11923.91660 0.04804 191.46951 146.42441
43.48044 3.02135 4.80863 12144.43739 0.04893 194.57872 148.51307
43.65095 3.03262 4.82656 11808.22822 0.04758 188.77326 143.80149
43.82146 3.04388 4.84449 12439.25611 0.05012 198.42141 150.85618
43.99198 3.05514 4.86241 13121.43474 0.05287 208.84035 158.46698
44.16249 3.06639 4.88032 13132.44456 0.05291 208.55384 157.93942
44.33300 3.07764 4.89821 14859.28830 0.05987 235.45654 177.96280
44.50351 3.08887 4.91610 16261.04357 0.06552 257.09989 193.93880
44.67402 3.10010 4.93397 16508.28393 0.06652 260.43344 196.06592
44.84453 3.11133 4.95183 20009.11757 0.08062 314.96674 236.65237
45.01505 3.12254 4.96968 25630.99825 0.10327 402.57319 301.87703
45.18556 3.13375 4.98752 25185.98890 0.10148 394.71308 295.39566
45.35607 3.14496 5.00535 36857.40956 0.14851 576.35643 430.47646
45.52658 3.15615 5.02317 57928.16512 0.23341 903.85873 673.74080
45.69709 3.16734 5.04098 65464.80775 0.26377 1019.21025 758.20817
45.86760 3.17852 5.05878 125309.02526 0.50490 1946.63256 1445.23820
46.03811 3.18970 5.07656 412637.07384 1.66261 6396.11518 4739.15502
46.20863 3.20086 5.09433 1389220.88253 5.59748 21486.53538 15888.34488
46.37914 3.21202 5.11210 1269188.11927 5.11384 19587.04005 14454.63627
46.54965 3.22318 5.12985 358829.87524 1.44580 5525.60455 4069.51578
46.72016 3.23432 5.14759 121370.18612 0.48903 1864.88602 1370.68709
46.89067 3.24546 5.16532 70470.90293 0.28394 1080.43802 792.51506
47.06118 3.25660 5.18303 59876.77890 0.24126 916.00719 670.54318
47.23170 3.26772 5.20074 38912.49873 0.15679 593.99214 433.93768
47.40221 3.27884 5.21843 29130.55785 0.11737 443.70283 323.48658
47.57272 3.28995 5.23611 28685.82428 0.11558 435.97666 317.20745
47.74323 3.30105 5.25379 24037.26093 0.09685 364.53070 264.68478
47.91374 3.31215 5.27144 20929.22894 0.08433 316.70600 229.49043
48.08425 3.32323 5.28909 20794.14916 0.08378 313.97773 227.04885
48.25476 3.33432 5.30673 20375.61202 0.08210 306.98964 221.54149
48.42528 3.34539 5.32435 18331.99965 0.07386 275.59984 198.48150
48.59579 3.35646 5.34196 19620.60712 0.07906 294.33260 211.53777
48.76630 3.36751 5.35957 19247.96309 0.07755 288.11657 206.64511
48.93681 3.37857 5.37715 19442.08779 0.07834 290.39198 207.84890
49.10732 3.38961 5.39473 21102.34968 0.08503 314.50789 224.64654
49.27783 3.40065 5.41230 21386.69939 0.08617 318.05647 226.71302
49.44835 3.41167 5.42985 22582.37579 0.09099 335.11246 238.37778
49.61886 3.42270 5.44739 25386.45581 0.10229 375.91033 266.84644
49.78937 3.43371 5.46492 25923.41969 0.10445 383.03324 271.34048
49.95988 3.44471 5.48243 30501.80421 0.12290 449.70989 317.91467
50.13039 3.45571 5.49994 34034.20058 0.13713 500.70966 353.23455
50.30090 3.46670 5.51743 37639.81207 0.15166 552.56341 389.00708
50.47141 3.47769 5.53491 48180.15654 0.19413 705.77767 495.83891
50.64193 3.48866 5.55238 51544.31618 0.20768 753.43586 528.22074
50.81244 3.49963 5.56983 69705.78999 0.28086 1016.71898 711.32121
50.98295 3.51059 5.58728 89352.68509 0.36002 1300.49005 907.96006
51.15346 3.52154 5.60471 105545.57621 0.42527 1532.87799 1067.97587
